File: data/XRD_data/2018_8-7XRD/2018_8-7 FAGACs_2p5FASCN_2p5PEAI001_exported.xy
'Id: "" Comment: "Integrate frame 2018_8-7 FAGACs_2p5FASCN_2p5PEAI001.gfrmwith cursor Full Frame Cursor #4" Operator: "MAF user" Anode: "Cu" Scantype: "TwoTheta" TimePerStep: "90"
10.74 6.98285
10.9 5.31726
11.06 5.09733
11.22 4.92914
11.38 4.85446
11.54 4.76482
11.7 4.75493
11.86 4.71758
12.02 4.75845
12.18 4.80187
12.34 4.79415
12.5 4.66571
12.66 4.79469
12.82 4.68943
12.98 4.67602
13.14 4.68317
13.3 4.7675
13.46 4.66904
13.62 4.86266
13.78 4.8177
13.94 4.9459
14.1 4.97146
14.26 5.26166
14.42 5.80536
14.58 12.854
14.74 102.167
14.9 8.25745
15.06 5.5503
15.22 5.24074
15.38 4.90482
15.54 4.93663
15.7 4.95237
15.86 4.94848
16.02 4.90012
16.18 5.02213
16.34 4.93113
16.5 4.90797
16.66 4.94166
16.82 4.89909
16.98 4.98815
17.14 5.01942
17.3 5.14925
17.46 5.20569
17.62 5.17143
17.78 5.16386
17.94 5.21667
18.1 5.25932
18.26 5.38437
18.42 5.26947
18.58 5.5018
18.74 5.34897
18.9 5.53281
19.06 5.5337
19.22 5.65949
19.38 5.73087
19.54 5.78631
19.7 5.91865
19.86 5.97252
20.02 5.97244
20.18 6.06809
20.34 6.17791
20.5 6.21163
20.66 6.70535
20.82 10.7589
20.98 8.60125
21.14 6.49872
21.3 6.53863
21.46 6.75732
21.62 6.6507
21.78 6.69285
21.94 6.6867
22.1 6.83029
22.26 6.89718
22.42 6.95542
22.58 7.1301
22.74 7.46398
22.9 7.12926
23.06 7.25103
23.22 7.30367
23.38 7.22165
23.54 7.36328
23.7 7.2718
23.86 7.16105
24.02 7.36055
24.18 7.14719
24.34 7.27637
24.5 7.40088
24.66 7.36308
24.82 7.42864
24.98 7.27688
25.14 7.58182
25.3 8.37453
25.46 7.76916
25.62 7.33027
25.78 7.26642
25.94 7.4026
26.1 7.15581
26.26 7.40394
26.42 7.20116
26.58 7.29579
26.74 7.30136
26.9 7.40178
27.06 7.31461
27.22 7.33129
27.38 7.41134
27.54 7.32195
27.7 7.4854
27.86 7.48883
28.02 7.45352
28.18 7.56334
28.34 7.559
28.5 7.69528
28.66 7.84654
28.82 8.04694
28.98 8.77333
29.14 12.4277
29.3 70.6682
29.46 31.9248
29.62 8.90044
29.78 7.81547
29.94 7.53699
30.1 7.46638
30.26 7.19808
30.42 7.21984
30.58 7.1557
30.74 7.1159
30.9 6.85236
31.06 7.06418
31.22 6.89761
31.38 6.91815
31.54 6.95278
31.7 6.84403
31.86 6.79593
32.02 6.78686
32.18 6.77442
32.34 6.69841
32.5 6.63522
32.66 7.26773
32.82 12.966
32.98 10.3202
33.14 6.6732
33.3 6.35416
33.46 6.46974
33.62 6.43714
33.78 6.41094
33.94 6.37789
34.1 6.34731
34.26 6.24429
34.42 6.21568
34.58 6.26962
34.74 6.24425
34.9 6.11644
35.06 6.14048
35.22 6.19029
35.38 6.0475
35.54 6.03539
35.7 5.97537
35.86 6.60025
36.02 7.07901
36.18 5.92056
36.34 5.84056
36.5 5.69048
36.66 5.71391
36.82 5.68397
36.98 5.56398
37.14 5.60273
37.3 5.38469
37.46 5.45752
37.62 5.47132
37.78 5.31607
37.94 5.43128
38.1 5.36669
38.26 5.24506
38.42 5.35629
38.58 5.2643
38.74 5.17928
38.9 5.17727
39.06 5.14924
39.22 5.08702
39.38 5.0707
39.54 5.17238
39.7 5.0928
39.86 5.22473
40.02 5.22404
40.18 5.24591
40.34 4.95526
40.5 5.14682
40.66 4.99719
40.82 5.08206
40.98 5.00824
41.14 5.21192
41.3 5.03131
41.46 5.26684
41.62 6.35585
41.78 7.45588
41.94 5.74608
42.1 5.06312
42.26 5.07045
42.42 5.08955
42.58 4.96415
42.74 4.92206
42.9 4.96659
43.06 4.89319
43.22 5.05497
43.38 5.00015
43.54 4.98172
43.7 4.9534
43.86 5.00308
44.02 4.9169
44.18 5.19386
44.34 7.1037
44.5 6.44556
44.66 5.23332
44.82 5.04546
44.98 4.94246
45.14 4.87883
45.3 4.89912
45.46 4.83575
45.62 4.90854
45.78 4.87829
45.94 4.77656
46.1 4.69989
46.26 4.59638
46.42 4.71406
46.58 4.8078
46.74 5.07186
46.9 5.11881
47.06 4.61592
47.22 4.61358
47.38 4.47754
47.54 4.75551
47.7 4.56233
47.86 4.62608
48.02 4.57491
48.18 4.57028
48.34 4.67483
48.5 4.69706
48.66 4.59425
48.82 4.50069
48.98 4.51527
49.14 4.59255
49.3 4.64024
49.46 4.44826
49.62 4.46124
49.78 4.5195
49.94 4.40857
50.1 4.48261
50.26 4.48843
50.42 4.27041
50.58 4.46449
50.74 4.43565
50.9 4.50561
51.06 4.47379
51.22 4.50531
51.38 4.35169
51.54 4.91426
51.7 4.8975
51.86 4.5252
52.02 4.46204
52.18 4.39477
52.34 4.42166
52.5 4.37371
52.66 4.517
52.82 4.50542
52.98 4.36915
53.14 4.46104
53.3 4.24502
53.46 4.36392
53.62 4.42277
53.78 4.66919
53.94 4.60844
54.1 4.45831
54.26 4.28824
54.42 4.37781
54.58 4.36979
54.74 4.41825
54.9 4.27165
55.06 4.33484
55.22 4.32616
55.38 4.42624
55.54 4.81539
55.7 4.59379
55.86 4.68708
56.02 4.97136
56.18 4.78874
56.34 4.40479
56.5 4.9983
56.66 4.35887
56.82 6.3681
56.9 3.64048