File: data/XRD_data/2018_8-7XRD/2018_8-7 FAGACs_3p75PEAI001_exported.xy
'Id: "" Comment: "Integrate frame 2018_8-7 FAGACs_3p75PEAI001.gfrmwith cursor Full Frame Cursor #7" Operator: "MAF user" Anode: "Cu" Scantype: "TwoTheta" TimePerStep: "90"
10.74 6.51646
10.9 5.28859
11.06 4.82397
11.22 4.74475
11.38 4.85882
11.54 4.63745
11.7 4.95093
11.86 4.94618
12.02 5.04183
12.18 4.67561
12.34 4.93486
12.5 4.82796
12.66 4.9844
12.82 4.84113
12.98 4.74841
13.14 5.0933
13.3 5.01849
13.46 5.08024
13.62 5.09928
13.78 5.26197
13.94 5.45371
14.1 5.6842
14.26 5.98115
14.42 6.55607
14.58 8.28542
14.74 11.2139
14.9 10.3781
15.06 7.28269
15.22 5.73103
15.38 5.36279
15.54 5.189
15.7 5.00655
15.86 5.07955
16.02 5.08164
16.18 5.19178
16.34 5.00965
16.5 5.1093
16.66 5.09369
16.82 5.1272
16.98 5.16947
17.14 5.15373
17.3 5.11324
17.46 5.1695
17.62 5.23703
17.78 5.33704
17.94 5.23995
18.1 5.25784
18.26 5.27972
18.42 5.40766
18.58 5.51837
18.74 5.59846
18.9 5.61857
19.06 5.61122
19.22 5.74741
19.38 5.80768
19.54 5.80914
19.7 5.91807
19.86 5.98313
20.02 5.96213
20.18 6.17774
20.34 6.33348
20.5 6.43335
20.66 6.97654
20.82 8.07
20.98 9.01362
21.14 8.19794
21.3 7.24759
21.46 6.85005
21.62 6.87839
21.78 6.80219
21.94 6.86548
22.1 6.8311
22.26 6.89775
22.42 7.12206
22.58 7.20752
22.74 7.17661
22.9 7.3039
23.06 7.13572
23.22 7.43046
23.38 7.46352
23.54 7.5186
23.7 7.40386
23.86 7.43547
24.02 7.50864
24.18 7.46037
24.34 7.53287
24.5 7.46854
24.66 7.65731
24.82 7.50585
24.98 7.64631
25.14 7.72498
25.3 7.87778
25.46 8.15066
25.62 8.22297
25.78 7.74125
25.94 7.60359
26.1 7.66568
26.26 7.57764
26.42 7.51258
26.58 7.63507
26.74 7.64256
26.9 7.61581
27.06 7.56272
27.22 7.61683
27.38 7.70918
27.54 7.60465
27.7 7.68188
27.86 7.51534
28.02 7.64131
28.18 7.55561
28.34 7.84738
28.5 7.77047
28.66 8.02122
28.82 8.20366
28.98 8.4089
29.14 9.2229
29.3 10.746
29.46 12.4495
29.62 11.8391
29.78 9.56884
29.94 8.24303
30.1 7.76484
30.26 7.58256
30.42 7.41631
30.58 7.51148
30.74 7.34595
30.9 7.26417
31.06 7.31345
31.22 7.22554
31.38 7.12127
31.54 7.24271
31.7 7.10819
31.86 7.02391
32.02 7.01319
32.18 7.22066
32.34 7.14611
32.5 7.27867
32.66 7.45925
32.82 8.24735
32.98 9.04946
33.14 8.82332
33.3 7.59705
33.46 6.97179
33.62 6.79673
33.78 6.65876
33.94 6.50698
34.1 6.47795
34.26 6.26112
34.42 6.15559
34.58 6.03984
34.74 6.33153
34.9 6.10392
35.06 6.16124
35.22 6.09329
35.38 6.27791
35.54 6.12257
35.7 5.99703
35.86 6.40552
36.02 6.57545
36.18 6.65773
36.34 6.33647
36.5 5.95818
36.66 5.82081
36.82 5.66056
36.98 5.65235
37.14 5.58832
37.3 5.62853
37.46 5.37994
37.62 5.49458
37.78 5.36009
37.94 5.40518
38.1 5.27105
38.26 5.2978
38.42 5.38057
38.58 5.26695
38.74 5.16032
38.9 5.19036
39.06 5.22694
39.22 5.11527
39.38 5.11256
39.54 5.12732
39.7 5.30411
39.86 5.3132
40.02 5.34342
40.18 5.27005
40.34 5.1085
40.5 5.26822
40.66 5.22116
40.82 5.18677
40.98 5.26244
41.14 5.20061
41.3 5.38456
41.46 5.51944
41.62 5.77085
41.78 6.28646
41.94 6.68484
42.1 6.48875
42.26 5.87954
42.42 5.3915
42.58 5.34142
42.74 5.24528
42.9 5.10176
43.06 5.15868
43.22 5.14266
43.38 4.95271
43.54 5.17198
43.7 5.10973
43.86 5.04378
44.02 5.16514
44.18 5.20395
44.34 5.43005
44.5 5.79171
44.66 5.91651
44.82 5.50357
44.98 5.18645
45.14 4.95273
45.3 4.88956
45.46 4.88626
45.62 4.91679
45.78 4.95272
45.94 4.85161
46.1 4.86991
46.26 4.82468
46.42 4.6802
46.58 4.79288
46.74 4.7712
46.9 4.85892
47.06 4.81502
47.22 4.76186
47.38 4.85022
47.54 4.72336
47.7 4.71426
47.86 4.56048
48.02 4.44794
48.18 4.65657
48.34 4.70326
48.5 4.65276
48.66 4.61887
48.82 4.58001
48.98 4.55999
49.14 4.48916
49.3 4.50732
49.46 4.65511
49.62 4.65399
49.78 4.57997
49.94 4.5003
50.1 4.53083
50.26 4.47451
50.42 4.43688
50.58 4.50522
50.74 4.54529
50.9 4.49482
51.06 4.47302
51.22 4.37884
51.38 4.58384
51.54 4.45839
51.7 4.76912
51.86 4.75369
52.02 4.61966
52.18 4.6101
52.34 4.50492
52.5 4.46327
52.66 4.46291
52.82 4.41822
52.98 4.31673
53.14 4.46321
53.3 4.47292
53.46 4.2584
53.62 4.34971
53.78 4.4431
53.94 4.46113
54.1 4.5429
54.26 4.37056
54.42 4.39723
54.58 4.44894
54.74 4.50587
54.9 4.26295
55.06 4.27328
55.22 4.46229
55.38 4.55672
55.54 4.71161
55.7 4.57706
55.86 4.50046
56.02 4.54331
56.18 4.70237
56.34 4.88716
56.5 5.28566
56.66 5.09755
56.82 5.36534
56.9 6.15943