File: data/XRD_data/2018_8-7XRD/2018_8-7 FAGACs_1p25PEAI001_exported.xy
'Id: "" Comment: "Integrate frame 2018_8-7 FAGACs_1p25PEAI001.gfrmwith cursor Full Frame Cursor #3" Operator: "MAF user" Anode: "Cu" Scantype: "TwoTheta" TimePerStep: "90"
10.74 6.34201
10.9 5.16358
11.06 5.0736
11.22 4.70033
11.38 4.50784
11.54 4.78591
11.7 4.6347
11.86 4.76591
12.02 4.77416
12.18 4.83902
12.34 4.69612
12.5 5.02214
12.66 4.78073
12.82 4.92628
12.98 4.75119
13.14 4.80927
13.3 4.79369
13.46 4.92205
13.62 4.99056
13.78 5.08111
13.94 4.98527
14.1 5.07161
14.26 5.26676
14.42 5.54676
14.58 6.79417
14.74 10.0306
14.9 9.6775
15.06 6.56223
15.22 5.37983
15.38 5.14895
15.54 5.0153
15.7 4.95457
15.86 4.77731
16.02 4.78563
16.18 4.85881
16.34 4.99392
16.5 5.01507
16.66 4.90119
16.82 5.06173
16.98 5.02046
17.14 5.03923
17.3 5.07605
17.46 5.06352
17.62 5.12689
17.78 5.14276
17.94 5.23545
18.1 5.30977
18.26 5.37292
18.42 5.28774
18.58 5.48991
18.74 5.56806
18.9 5.52097
19.06 5.57799
19.22 5.70741
19.38 5.73211
19.54 5.8091
19.7 5.8299
19.86 5.91427
20.02 6.0701
20.18 5.94129
20.34 6.15656
20.5 6.31631
20.66 6.73403
20.82 7.77659
20.98 9.11494
21.14 8.26524
21.3 7.10185
21.46 6.88189
21.62 6.72411
21.78 6.71509
21.94 6.76928
22.1 6.76939
22.26 6.87899
22.42 6.95959
22.58 7.08195
22.74 7.16962
22.9 7.0695
23.06 7.10556
23.22 7.29663
23.38 7.44252
23.54 7.41704
23.7 7.37257
23.86 7.35409
24.02 7.31818
24.18 7.44688
24.34 7.33002
24.5 7.46876
24.66 7.41399
24.82 7.49404
24.98 7.53107
25.14 7.63416
25.3 7.80092
25.46 8.22519
25.62 8.2144
25.78 7.77075
25.94 7.70352
26.1 7.47739
26.26 7.50866
26.42 7.63929
26.58 7.55936
26.74 7.54375
26.9 7.53351
27.06 7.49528
27.22 7.53452
27.38 7.54384
27.54 7.64363
27.7 7.47085
27.86 7.41106
28.02 7.63094
28.18 7.52347
28.34 7.57042
28.5 7.64461
28.66 7.65112
28.82 7.80135
28.98 7.82702
29.14 8.2718
29.3 9.35785
29.46 11.6636
29.62 11.5114
29.78 9.13114
29.94 7.86384
30.1 7.57161
30.26 7.30052
30.42 7.22277
30.58 7.24658
30.74 7.17892
30.9 7.1058
31.06 7.23977
31.22 7.04397
31.38 7.17324
31.54 7.18369
31.7 6.97769
31.86 6.90239
32.02 7.09461
32.18 7.07181
32.34 6.93626
32.5 7.01666
32.66 7.25139
32.82 7.83752
32.98 8.9416
33.14 8.96595
33.3 7.70146
33.46 6.94231
33.62 6.81201
33.78 6.48259
33.94 6.42464
34.1 6.33659
34.26 6.3123
34.42 6.18072
34.58 6.21959
34.74 6.13118
34.9 6.03353
35.06 6.08913
35.22 6.12174
35.38 5.84013
35.54 5.92252
35.7 5.99275
35.86 6.10739
36.02 6.40483
36.18 6.79314
36.34 6.39207
36.5 5.96437
36.66 5.63536
36.82 5.61161
36.98 5.47469
37.14 5.52629
37.3 5.38945
37.46 5.42292
37.62 5.46019
37.78 5.1752
37.94 5.25341
38.1 5.24422
38.26 5.30069
38.42 5.21273
38.58 5.29622
38.74 5.01417
38.9 5.20111
39.06 5.10164
39.22 5.13196
39.38 5.04856
39.54 5.07237
39.7 5.2107
39.86 5.39005
40.02 5.20211
40.18 5.24256
40.34 5.11095
40.5 5.32624
40.66 5.05823
40.82 5.10625
40.98 5.16228
41.14 5.16548
41.3 5.29417
41.46 5.33403
41.62 5.4174
41.78 5.93137
41.94 6.58924
42.1 6.65464
42.26 5.85962
42.42 5.43183
42.58 5.18155
42.74 5.01101
42.9 4.96098
43.06 4.95248
43.22 5.13913
43.38 5.03008
43.54 4.91594
43.7 4.93223
43.86 5.09104
44.02 5.00222
44.18 5.05572
44.34 5.2471
44.5 5.70352
44.66 6.00941
44.82 5.54858
44.98 5.2893
45.14 4.95386
45.3 4.77947
45.46 4.7672
45.62 4.64726
45.78 4.83102
45.94 4.65472
46.1 4.79536
46.26 4.5965
46.42 4.6131
46.58 4.69246
46.74 4.59985
46.9 4.69267
47.06 4.64542
47.22 4.69647
47.38 4.65046
47.54 4.6562
47.7 4.57207
47.86 4.59502
48.02 4.56961
48.18 4.46353
48.34 4.53997
48.5 4.50005
48.66 4.50865
48.82 4.47328
48.98 4.49375
49.14 4.39333
49.3 4.44529
49.46 4.40403
49.62 4.41248
49.78 4.52194
49.94 4.36158
50.1 4.34227
50.26 4.39008
50.42 4.3913
50.58 4.32566
50.74 4.471
50.9 4.39231
51.06 4.21008
51.22 4.3272
51.38 4.39562
51.54 4.43257
51.7 4.52614
51.86 4.69971
52.02 4.54415
52.18 4.45062
52.34 4.39805
52.5 4.37308
52.66 4.25641
52.82 4.24213
52.98 4.23205
53.14 4.3993
53.3 4.29222
53.46 4.26305
53.62 4.19224
53.78 4.34054
53.94 4.20826
54.1 4.38112
54.26 4.32756
54.42 4.36541
54.58 4.23831
54.74 4.27874
54.9 4.28474
55.06 4.29543
55.22 4.25694
55.38 4.22478
55.54 4.61222
55.7 4.68819
55.86 4.53095
56.02 4.60871
56.18 4.51407
56.34 4.83375
56.5 5.00651
56.66 4.55331
56.82 5.43755
56.9 6.44684