File: data/XRD_data/2018_8-7XRD/2018_8-7 FAGACs_2p5PEAI001_exported.xy
'Id: "" Comment: "Integrate frame 2018_8-7 FAGACs_2p5PEAI001.gfrmwith cursor Full Frame Cursor #6" Operator: "MAF user" Anode: "Cu" Scantype: "TwoTheta" TimePerStep: "90"
10.74 6.43092
10.9 5.16832
11.06 4.94262
11.22 4.89934
11.38 4.8914
11.54 4.89819
11.7 4.7589
11.86 4.98985
12.02 4.96535
12.18 4.89534
12.34 4.82925
12.5 4.87817
12.66 4.69605
12.82 4.84307
12.98 4.88661
13.14 4.8199
13.3 4.82128
13.46 4.8508
13.62 5.07986
13.78 5.08083
13.94 5.18289
14.1 5.27956
14.26 5.23169
14.42 5.82324
14.58 7.57142
14.74 10.649
14.9 9.36745
15.06 6.55215
15.22 5.45568
15.38 5.08451
15.54 5.0952
15.7 4.99349
15.86 4.92744
16.02 4.91737
16.18 4.9953
16.34 5.00988
16.5 5.05252
16.66 5.05692
16.82 5.13677
16.98 4.98942
17.14 5.09367
17.3 5.07516
17.46 5.20811
17.62 5.24552
17.78 5.20753
17.94 5.28492
18.1 5.34011
18.26 5.43987
18.42 5.39625
18.58 5.51654
18.74 5.50678
18.9 5.4563
19.06 5.622
19.22 5.65609
19.38 5.69491
19.54 5.87663
19.7 5.92951
19.86 5.94033
20.02 5.98345
20.18 6.06321
20.34 6.18303
20.5 6.3686
20.66 6.90934
20.82 8.066
20.98 9.04462
21.14 8.04654
21.3 7.06557
21.46 6.83095
21.62 6.76908
21.78 6.76771
21.94 6.68538
22.1 6.80316
22.26 6.99256
22.42 6.96323
22.58 7.29149
22.74 7.18671
22.9 7.3009
23.06 7.21991
23.22 7.3379
23.38 7.43228
23.54 7.45963
23.7 7.48596
23.86 7.45661
24.02 7.3783
24.18 7.38963
24.34 7.44265
24.5 7.4014
24.66 7.40549
24.82 7.40017
24.98 7.48104
25.14 7.51738
25.3 7.79044
25.46 8.30582
25.62 8.03966
25.78 7.73396
25.94 7.52352
26.1 7.50908
26.26 7.57885
26.42 7.49537
26.58 7.41715
26.74 7.58385
26.9 7.61429
27.06 7.48338
27.22 7.56105
27.38 7.38704
27.54 7.55209
27.7 7.52313
27.86 7.45586
28.02 7.3322
28.18 7.4907
28.34 7.52302
28.5 7.56861
28.66 7.66827
28.82 7.69556
28.98 8.05087
29.14 8.58678
29.3 10.101
29.46 12.0394
29.62 11.1167
29.78 8.96225
29.94 7.98636
30.1 7.31124
30.26 7.41786
30.42 7.22351
30.58 7.28361
30.74 7.29375
30.9 7.07915
31.06 7.13407
31.22 7.15299
31.38 7.05922
31.54 6.88226
31.7 6.95324
31.86 7.16706
32.02 7.20758
32.18 6.94964
32.34 7.05331
32.5 7.08907
32.66 7.15048
32.82 8.11838
32.98 9.05738
33.14 8.49181
33.3 7.55506
33.46 6.97065
33.62 6.72003
33.78 6.58064
33.94 6.46011
34.1 6.30094
34.26 6.37327
34.42 6.23568
34.58 6.29072
34.74 5.98841
34.9 6.21918
35.06 6.00832
35.22 6.02454
35.38 6.11339
35.54 5.9483
35.7 5.92839
35.86 6.06621
36.02 6.41005
36.18 6.74791
36.34 6.48395
36.5 6.00035
36.66 5.81365
36.82 5.61873
36.98 5.487
37.14 5.40915
37.3 5.49239
37.46 5.5266
37.62 5.29024
37.78 5.40994
37.94 5.29122
38.1 5.23451
38.26 5.28771
38.42 5.25428
38.58 5.16311
38.74 5.08203
38.9 5.19821
39.06 5.18658
39.22 5.15706
39.38 5.06077
39.54 5.21508
39.7 5.21998
39.86 5.20943
40.02 5.27962
40.18 5.02525
40.34 5.12565
40.5 5.29214
40.66 5.17484
40.82 5.11611
40.98 5.02507
41.14 5.08417
41.3 5.36884
41.46 5.28666
41.62 5.78125
41.78 6.24199
41.94 6.83127
42.1 6.56974
42.26 5.86784
42.42 5.36123
42.58 5.14315
42.74 5.18824
42.9 5.08164
43.06 5.06661
43.22 5.06966
43.38 5.1161
43.54 5.06735
43.7 4.97204
43.86 5.16471
44.02 5.08197
44.18 5.17368
44.34 5.32877
44.5 5.71562
44.66 5.79089
44.82 5.70813
44.98 5.28409
45.14 5.01193
45.3 5.0382
45.46 5.06747
45.62 4.89373
45.78 4.90193
45.94 4.90888
46.1 4.90895
46.26 4.76962
46.42 4.65259
46.58 4.88368
46.74 4.95935
46.9 4.94245
47.06 5.00604
47.22 4.80255
47.38 4.91568
47.54 4.82962
47.7 4.69261
47.86 4.72328
48.02 4.69101
48.18 4.81019
48.34 4.67824
48.5 4.7466
48.66 4.8064
48.82 4.65292
48.98 4.59635
49.14 4.5598
49.3 4.71642
49.46 4.69642
49.62 4.58079
49.78 4.59704
49.94 4.56544
50.1 4.52972
50.26 4.42964
50.42 4.63657
50.58 4.74722
50.74 4.52396
50.9 4.61053
51.06 4.48539
51.22 4.46441
51.38 4.53273
51.54 4.56617
51.7 4.73977
51.86 4.78033
52.02 4.91914
52.18 4.68077
52.34 4.55067
52.5 4.40714
52.66 4.56296
52.82 4.47047
52.98 4.46215
53.14 4.52692
53.3 4.41084
53.46 4.37584
53.62 4.47457
53.78 4.45594
53.94 4.532
54.1 4.4792
54.26 4.54576
54.42 4.62134
54.58 4.48843
54.74 4.44946
54.9 4.3706
55.06 4.33639
55.22 4.44018
55.38 4.34217
55.54 4.89257
55.7 4.61736
55.86 4.50945
56.02 4.78422
56.18 4.89766
56.34 5.06849
56.5 5.43116
56.66 5.84358
56.82 5.91962
56.9 4.72886