File: data/XRD_data/2018_8-7XRD/2018_8-7 FAGACs_5PEAI001_exported.xy
'Id: "" Comment: "Integrate frame 2018_8-7 FAGACs_5PEAI001.gfrmwith cursor Full Frame Cursor #8" Operator: "MAF user" Anode: "Cu" Scantype: "TwoTheta" TimePerStep: "90"
10.74 5.97955
10.9 5.39479
11.06 4.92031
11.22 4.84261
11.38 4.98612
11.54 4.79701
11.7 4.82925
11.86 4.92027
12.02 4.70293
12.18 4.74718
12.34 4.74237
12.5 4.73308
12.66 4.8895
12.82 4.84225
12.98 4.6824
13.14 4.91327
13.3 4.93414
13.46 4.89911
13.62 5.58361
13.78 4.98548
13.94 5.12758
14.1 5.43729
14.26 5.86145
14.42 8.70063
14.58 47.9168
14.74 150.951
14.9 7.88414
15.06 5.64399
15.22 5.37633
15.38 5.10155
15.54 4.98116
15.7 4.93135
15.86 4.94337
16.02 4.92563
16.18 4.96684
16.34 5.0319
16.5 5.02927
16.66 5.03217
16.82 4.96963
16.98 5.03288
17.14 5.10823
17.3 5.02893
17.46 5.0803
17.62 5.23421
17.78 5.36769
17.94 5.33949
18.1 5.37022
18.26 5.39482
18.42 5.50333
18.58 5.51394
18.74 5.53972
18.9 5.58967
19.06 5.71911
19.22 5.65416
19.38 5.78901
19.54 5.87823
19.7 5.94099
19.86 5.99593
20.02 5.99506
20.18 6.16712
20.34 6.17425
20.5 6.30629
20.66 6.91956
20.82 8.85041
20.98 7.14523
21.14 6.58338
21.3 6.62188
21.46 6.65692
21.62 6.76425
21.78 6.80547
21.94 6.82049
22.1 6.7473
22.26 7.00339
22.42 7.07825
22.58 7.5996
22.74 7.373
22.9 7.19881
23.06 7.3383
23.22 7.32143
23.38 7.39665
23.54 7.43141
23.7 7.4009
23.86 7.20939
24.02 7.39941
24.18 7.34234
24.34 7.37553
24.5 7.24702
24.66 7.35495
24.82 7.3639
24.98 7.35626
25.14 7.43588
25.3 7.74934
25.46 7.46314
25.62 7.3506
25.78 7.27422
25.94 7.56806
26.1 7.55084
26.26 7.45824
26.42 7.46782
26.58 7.44497
26.74 7.52207
26.9 7.75273
27.06 8.19779
27.22 8.78803
27.38 8.01255
27.54 7.58711
27.7 7.70696
27.86 8.18356
28.02 8.01609
28.18 7.78725
28.34 8.27778
28.5 8.25757
28.66 8.57273
28.82 10.3284
28.98 15.4302
29.14 31.9809
29.3 104.05
29.46 48.3388
29.62 9.73129
29.78 8.19682
29.94 7.9009
30.1 7.67948
30.26 7.50573
30.42 7.55285
30.58 7.4757
30.74 7.28178
30.9 7.12406
31.06 7.1737
31.22 7.18725
31.38 7.09312
31.54 7.00289
31.7 7.15511
31.86 6.99857
32.02 7.0427
32.18 7.36488
32.34 7.27451
32.5 7.08686
32.66 8.15528
32.82 10.9833
32.98 8.95545
33.14 6.72908
33.3 6.48216
33.46 6.55646
33.62 6.67212
33.78 6.58099
33.94 6.31813
34.1 6.29895
34.26 6.40506
34.42 6.1541
34.58 6.24476
34.74 6.3513
34.9 6.22129
35.06 6.2316
35.22 6.25954
35.38 5.89056
35.54 5.9808
35.7 5.96014
35.86 6.15597
36.02 6.31947
36.18 5.81374
36.34 5.86595
36.5 5.78477
36.66 5.75206
36.82 5.74984
36.98 5.89232
37.14 5.54355
37.3 5.62068
37.46 5.57543
37.62 5.32976
37.78 5.38172
37.94 5.37737
38.1 5.40825
38.26 5.35749
38.42 5.40239
38.58 5.55432
38.74 5.56776
38.9 5.32121
39.06 5.17183
39.22 5.23718
39.38 5.13894
39.54 5.17962
39.7 5.14678
39.86 5.27369
40.02 5.07594
40.18 5.24281
40.34 5.4267
40.5 5.33796
40.66 5.03943
40.82 5.08492
40.98 5.13979
41.14 4.94854
41.3 5.15776
41.46 5.04267
41.62 5.81911
41.78 6.03673
41.94 5.19724
42.1 5.15267
42.26 5.12545
42.42 5.08868
42.58 5.04345
42.74 4.95794
42.9 5.10522
43.06 5.01751
43.22 5.03955
43.38 4.99796
43.54 4.92372
43.7 5.06373
43.86 5.11334
44.02 5.17362
44.18 5.87243
44.34 7.13791
44.5 6.61338
44.66 5.25416
44.82 5.01237
44.98 4.94671
45.14 4.76147
45.3 4.82818
45.46 4.8212
45.62 4.71326
45.78 4.72473
45.94 4.62501
46.1 4.46986
46.26 4.47961
46.42 4.49747
46.58 4.64082
46.74 4.94659
46.9 4.79118
47.06 4.55039
47.22 4.52032
47.38 4.62752
47.54 4.52882
47.7 4.2937
47.86 4.46664
48.02 4.40799
48.18 4.29747
48.34 4.35161
48.5 4.43405
48.66 4.43038
48.82 4.38236
48.98 4.28885
49.14 4.33492
49.3 4.26927
49.46 4.35402
49.62 4.28199
49.78 4.39767
49.94 4.23578
50.1 4.27882
50.26 4.20439
50.42 4.19571
50.58 4.26877
50.74 4.324
50.9 4.27574
51.06 4.22271
51.22 4.2201
51.38 4.18384
51.54 4.30767
51.7 4.41532
51.86 4.3161
52.02 4.34663
52.18 4.15488
52.34 4.24972
52.5 4.1256
52.66 4.25995
52.82 4.05769
52.98 4.22901
53.14 4.26028
53.3 4.24156
53.46 4.12195
53.62 4.29002
53.78 4.30914
53.94 4.32776
54.1 4.22025
54.26 4.33876
54.42 4.43376
54.58 4.31601
54.74 4.42252
54.9 4.21857
55.06 4.24369
55.22 4.30295
55.38 4.23277
55.54 4.59778
55.7 4.4505
55.86 4.51602
56.02 4.58638
56.18 4.42425
56.34 4.60552
56.5 4.80499
56.66 4.81674
56.82 5.14697
56.9 3.25609