File: data/XRD_data/2018_8-7XRD/2018_8-7 FAGACs_2p5FASCN001_exported.xy
'Id: "" Comment: "Integrate frame 2018_8-7 FAGACs_2p5FASCN001.gfrmwith cursor Full Frame Cursor #5" Operator: "MAF user" Anode: "Cu" Scantype: "TwoTheta" TimePerStep: "90"
10.74 6.62255
10.9 5.09657
11.06 4.86109
11.22 4.59448
11.38 4.73504
11.54 4.94889
11.7 4.65489
11.86 4.56581
12.02 4.59578
12.18 4.72555
12.34 4.80078
12.5 4.73979
12.66 4.70746
12.82 4.77911
12.98 4.56178
13.14 4.65641
13.3 4.6966
13.46 4.65678
13.62 4.58044
13.78 4.7913
13.94 4.7788
14.1 4.83144
14.26 4.83999
14.42 5.09953
14.58 7.52811
14.74 44.2867
14.9 6.75321
15.06 4.94775
15.22 4.94038
15.38 4.76943
15.54 4.79074
15.7 4.81589
15.86 4.80565
16.02 4.83809
16.18 4.78531
16.34 4.85893
16.5 4.87978
16.66 4.85665
16.82 4.98912
16.98 4.9895
17.14 5.01124
17.3 5.0593
17.46 4.94393
17.62 5.06721
17.78 5.07155
17.94 5.2447
18.1 5.1039
18.26 5.24588
18.42 5.2989
18.58 5.22758
18.74 5.41173
18.9 5.44127
19.06 5.47397
19.22 5.50706
19.38 5.51361
19.54 5.70408
19.7 5.70362
19.86 5.7517
20.02 5.9792
20.18 5.97314
20.34 6.01888
20.5 6.08194
20.66 6.46686
20.82 11.0981
20.98 9.24744
21.14 6.55875
21.3 6.45139
21.46 6.5335
21.62 6.50782
21.78 6.60024
21.94 6.5978
22.1 6.76413
22.26 6.65231
22.42 6.79639
22.58 7.13016
22.74 7.05696
22.9 7.06758
23.06 6.86886
23.22 7.0295
23.38 7.1028
23.54 7.20572
23.7 7.14386
23.86 7.20104
24.02 7.19918
24.18 7.1384
24.34 7.26522
24.5 7.21909
24.66 7.21709
24.82 7.16687
24.98 7.20668
25.14 7.21805
25.3 8.59741
25.46 8.6009
25.62 7.51629
25.78 7.36318
25.94 7.28191
26.1 7.15083
26.26 7.24351
26.42 7.43868
26.58 7.23496
26.74 7.04845
26.9 7.2274
27.06 7.1662
27.22 7.20653
27.38 7.28578
27.54 7.23793
27.7 7.20419
27.86 7.13795
28.02 7.38638
28.18 7.30187
28.34 7.26494
28.5 7.43541
28.66 7.27147
28.82 7.53507
28.98 7.86852
29.14 9.45122
29.3 31.5112
29.46 26.4539
29.62 9.14559
29.78 7.47685
29.94 7.21656
30.1 7.0946
30.26 7.09036
30.42 7.26764
30.58 7.02249
30.74 6.90369
30.9 6.86825
31.06 6.85991
31.22 6.81049
31.38 6.9843
31.54 6.77965
31.7 6.81262
31.86 6.73537
32.02 6.77492
32.18 6.66809
32.34 6.71648
32.5 6.8117
32.66 7.07812
32.82 10.9118
32.98 11.2965
33.14 7.07594
33.3 6.32298
33.46 6.4331
33.62 6.36044
33.78 6.32511
33.94 6.27603
34.1 6.40819
34.26 6.15842
34.42 6.19265
34.58 6.19645
34.74 6.2299
34.9 6.0447
35.06 6.08711
35.22 5.95749
35.38 5.87427
35.54 5.95259
35.7 5.89974
35.86 6.08624
36.02 7.92388
36.18 6.11807
36.34 5.68462
36.5 5.78408
36.66 5.46592
36.82 5.46323
36.98 5.44175
37.14 5.44247
37.3 5.29879
37.46 5.45476
37.62 5.29176
37.78 5.31298
37.94 5.30525
38.1 5.28754
38.26 5.18806
38.42 5.05864
38.58 5.28779
38.74 5.19323
38.9 5.1544
39.06 5.12116
39.22 5.18393
39.38 5.06333
39.54 4.99796
39.7 5.15255
39.86 4.97577
40.02 5.06985
40.18 5.09111
40.34 4.92868
40.5 5.00006
40.66 4.94159
40.82 4.98696
40.98 5.16732
41.14 5.00717
41.3 5.1071
41.46 5.17341
41.62 5.78123
41.78 8.70347
41.94 6.53015
42.1 5.20225
42.26 5.14514
42.42 5.10464
42.58 5.00191
42.74 4.9015
42.9 4.92955
43.06 4.98711
43.22 4.97015
43.38 5.02264
43.54 4.90585
43.7 4.91125
43.86 4.93978
44.02 4.90312
44.18 5.17539
44.34 6.7997
44.5 7.29198
44.66 5.44671
44.82 5.05678
44.98 4.94323
45.14 5.03205
45.3 4.94194
45.46 4.99887
45.62 4.89424
45.78 5.04324
45.94 4.80576
46.1 4.65556
46.26 4.67659
46.42 4.97152
46.58 4.8401
46.74 4.72914
46.9 5.11985
47.06 4.92765
47.22 4.81284
47.38 4.67662
47.54 4.74289
47.7 4.61605
47.86 4.64315
48.02 4.56994
48.18 4.45817
48.34 4.65265
48.5 4.63573
48.66 4.52499
48.82 4.45467
48.98 4.54896
49.14 4.42774
49.3 4.57981
49.46 4.55678
49.62 4.54894
49.78 4.425
49.94 4.45224
50.1 4.33561
50.26 4.42469
50.42 4.47221
50.58 4.44553
50.74 4.38714
50.9 4.42117
51.06 4.38393
51.22 4.44859
51.38 4.36303
51.54 4.94848
51.7 5.23244
51.86 4.5786
52.02 4.59847
52.18 4.28363
52.34 4.51839
52.5 4.38769
52.66 4.44072
52.82 4.44385
52.98 4.44333
53.14 4.45653
53.3 4.40423
53.46 4.39993
53.62 4.30069
53.78 4.59288
53.94 4.8195
54.1 4.60413
54.26 4.33185
54.42 4.34949
54.58 4.39109
54.74 4.41073
54.9 4.34712
55.06 4.28435
55.22 4.21879
55.38 4.52519
55.54 4.8606
55.7 4.55353
55.86 4.76622
56.02 4.84645
56.18 4.59902
56.34 4.84249
56.5 4.81461
56.66 5.45667
56.82 6.83247
56.9 3.03859