File: data/XRD_data/2018_8-7XRD/2018_8-7 FAGACs_1p25FASCN001_exported.xy
'Id: "" Comment: "Integrate frame 2018_8-7 FAGACs_1p25FASCN001.gfrmwith cursor Full Frame Cursor #2" Operator: "MAF user" Anode: "Cu" Scantype: "TwoTheta" TimePerStep: "90"
10.74 7.04168
10.9 5.3373
11.06 4.62688
11.22 4.73007
11.38 4.62423
11.54 6.87783
11.7 4.85624
11.86 4.78365
12.02 4.64204
12.18 4.54033
12.34 4.69069
12.5 4.79919
12.66 4.98078
12.82 6.03629
12.98 10.7074
13.14 8.83923
13.3 5.2308
13.46 4.95696
13.62 4.73625
13.78 4.73809
13.94 4.80519
14.1 4.76538
14.26 4.76451
14.42 4.98936
14.58 5.87738
14.74 27.3267
14.9 8.25429
15.06 4.93792
15.22 4.85223
15.38 4.83537
15.54 4.74224
15.7 4.82618
15.86 4.78159
16.02 4.85162
16.18 4.66957
16.34 4.81742
16.5 4.82125
16.66 4.97586
16.82 4.95719
16.98 4.91294
17.14 4.92535
17.3 4.92929
17.46 4.9545
17.62 5.01489
17.78 5.07566
17.94 5.21278
18.1 5.14778
18.26 5.18711
18.42 5.17454
18.58 5.24107
18.74 5.28118
18.9 5.32422
19.06 5.51015
19.22 5.46633
19.38 5.66823
19.54 5.67201
19.7 5.742
19.86 5.83325
20.02 5.86266
20.18 5.87811
20.34 5.96376
20.5 6.0358
20.66 6.27694
20.82 9.4095
20.98 10.5483
21.14 6.72543
21.3 6.39819
21.46 6.4434
21.62 6.44966
21.78 6.52333
21.94 6.59633
22.1 6.6694
22.26 6.65892
22.42 6.71792
22.58 7.05532
22.74 6.82799
22.9 6.92014
23.06 7.05361
23.22 7.07099
23.38 6.99267
23.54 7.00398
23.7 7.12544
23.86 7.11197
24.02 7.14499
24.18 7.03763
24.34 7.15702
24.5 7.19386
24.66 7.0648
24.82 7.0712
24.98 7.13875
25.14 7.18827
25.3 7.28513
25.46 8.89526
25.62 7.33856
25.78 7.30543
25.94 7.60527
26.1 7.36017
26.26 7.24877
26.42 7.22054
26.58 7.18284
26.74 7.06544
26.9 7.03915
27.06 7.2293
27.22 7.12334
27.38 7.17568
27.54 7.2172
27.7 7.19192
27.86 7.1703
28.02 7.2495
28.18 7.2351
28.34 7.19867
28.5 7.32203
28.66 7.17472
28.82 7.2789
28.98 7.40056
29.14 8.029
29.3 11.7836
29.46 26.818
29.62 9.62928
29.78 7.18809
29.94 7.18989
30.1 7.08963
30.26 7.03482
30.42 7.02519
30.58 6.89947
30.74 6.83749
30.9 6.73056
31.06 6.87993
31.22 6.67496
31.38 6.77769
31.54 6.65523
31.7 6.76181
31.86 6.61658
32.02 6.60533
32.18 6.58362
32.34 6.55516
32.5 6.66778
32.66 6.64576
32.82 7.3699
32.98 12.3531
33.14 8.0398
33.3 6.41742
33.46 6.24701
33.62 6.19394
33.78 6.1875
33.94 6.08118
34.1 6.05785
34.26 6.14715
34.42 6.18611
34.58 5.99799
34.74 5.87461
34.9 5.96116
35.06 5.72973
35.22 5.67465
35.38 5.70416
35.54 5.79687
35.7 5.6649
35.86 5.69443
36.02 7.21668
36.18 6.92164
36.34 5.6372
36.5 5.3741
36.66 5.40347
36.82 5.28911
36.98 5.37372
37.14 5.2976
37.3 5.25632
37.46 5.15323
37.62 5.22902
37.78 5.09882
37.94 5.14804
38.1 5.19582
38.26 5.03346
38.42 5.06524
38.58 5.14379
38.74 5.23322
38.9 5.52953
39.06 7.19103
39.22 7.24792
39.38 5.51098
39.54 4.97413
39.7 5.06202
39.86 4.9722
40.02 5.038
40.18 4.83979
40.34 4.9599
40.5 4.82417
40.66 4.90128
40.82 4.83806
40.98 4.81302
41.14 4.79947
41.3 4.81899
41.46 4.78093
41.62 5.08416
41.78 6.39466
41.94 8.08991
42.1 5.47369
42.26 4.85895
42.42 4.87279
42.58 4.75274
42.74 4.92761
42.9 4.81342
43.06 4.80412
43.22 4.81598
43.38 4.76966
43.54 4.78548
43.7 4.74198
43.86 4.81075
44.02 4.84094
44.18 4.92677
44.34 5.06097
44.5 6.80847
44.66 5.92933
44.82 4.98338
44.98 4.86995
45.14 4.63487
45.3 4.736
45.46 4.5536
45.62 4.69825
45.78 4.64963
45.94 4.73993
46.1 4.48047
46.26 5.75096
46.42 5.67418
46.58 4.79237
46.74 4.56023
46.9 4.68918
47.06 4.75917
47.22 4.51343
47.38 4.3292
47.54 4.42899
47.7 4.3731
47.86 4.56977
48.02 4.31192
48.18 4.13957
48.34 4.37113
48.5 4.34448
48.66 4.2542
48.82 4.22861
48.98 4.27394
49.14 4.23652
49.3 4.18481
49.46 4.24997
49.62 4.35078
49.78 4.17881
49.94 4.2709
50.1 4.11024
50.26 4.30887
50.42 4.3303
50.58 4.23172
50.74 4.28255
50.9 4.12062
51.06 4.18558
51.22 4.12065
51.38 4.34209
51.54 4.15872
51.7 4.77098
51.86 4.85419
52.02 4.23967
52.18 4.19522
52.34 4.17163
52.5 4.34844
52.66 4.42745
52.82 4.87667
52.98 4.66264
53.14 4.41206
53.3 4.18967
53.46 4.18447
53.62 4.21369
53.78 4.14819
53.94 4.16647
54.1 4.42437
54.26 4.23776
54.42 4.10822
54.58 4.10686
54.74 4.1396
54.9 4.12638
55.06 4.17281
55.22 4.06064
55.38 4.05313
55.54 4.51811
55.7 4.33846
55.86 4.22185
56.02 4.35672
56.18 4.66834
56.34 4.61446
56.5 4.62407
56.66 5.27029
56.82 5.84499
56.9 4.38832